# Provided by T. Golan
# 
# Data used in GENIE for piN total cross sections where N is either p or n
# use Nuwro's implementation of Oset et al. model [Nucl. Phys. A484 (1998) 557-592] for pi+N elas, cex, and pi absorption
# finite range effects are not included (the results can be applied to any nucleus)
# pi-p = pi+n and pi-n = pi+p
# pi0-N is taken to be the average of pi+ and pi-
# KE is LAB energy in MeV, cross sections in mb, d = density in fm-3
# qel = (elastic + cex)
# 
#        d        KE       pi+n qel      pi+n fcex       pi+p qel      pi+p fcex        pi0 qel       pi0 fcex        pi abs
         0         0              0              0              0              0              0              0              0
         0        10        5.30348        4.17411        3.03015              0        4.16681        4.17348     0.00650105
         0        20        5.42315        4.21567        3.37674              0        4.39994        4.21441     0.00808914
         0        30        5.61786        4.30665        3.95702              0        4.78744        4.30479     0.00937511
         0        40         5.9226        4.47054        4.87493              0        5.39877         4.4682      0.0105296
         0        50          6.387        4.74059        6.27841              0         6.3327        4.73796      0.0116611
         0        60        7.08202        5.16426        8.37952              0        7.73077        5.16159      0.0128502
         0        70        8.10978        5.80977        11.4837              0        9.79676        5.80731      0.0141663
         0        80        9.61714        6.77514        16.0309              0         12.824        6.77308      0.0156775
         0        90        11.8133        8.19999        22.6481              0        17.2307        8.19846      0.0174456
         0       100         14.988        10.2775        32.2036              0        23.5958        10.2765      0.0195236
         0       110        19.5164        13.2578         45.822              0        32.6692        13.2573      0.0219301
         0       120        25.8133        17.4177        64.7479              0        45.2806         17.417      0.0245971
         0       130        34.1629        22.9466        89.8329              0        61.9979        22.9449      0.0272798
         0       140        44.3409        29.6951        120.404              0        82.3723        29.6906      0.0294617
         0       150        55.1346        36.8548        152.822              0        103.978        36.8457      0.0303857
         0       160         64.326        42.9472        180.433              0        122.379         42.932      0.0293998
         0       170        69.7482        46.5278        196.735              0        133.242        46.5063      0.0264901
         0       180         70.704        47.1321        199.637              0        135.171        47.1052      0.0223997
         0       190        68.1547        45.4007        192.023              0        130.089        45.3703      0.0181061
         0       200        63.6913        42.3943        178.665              0        121.178        42.3623      0.0142789
         0       210        58.6139        38.9797        163.462              0        111.038        38.9477      0.0111676
         0       220        53.6771        35.6597         148.68              0        101.178        35.6293     0.00875652
         0       230        49.2127        32.6558        135.312              0        92.2621        32.6279     0.00692707
         0       240        45.3124        30.0289        123.633              0        84.4727        30.0043     0.00554641
         0       250        41.9552        27.7653        113.581              0        77.7682        27.7443     0.00450095
         0       260        39.0781        25.8228        104.966              0        72.0221        25.8055     0.00370301
         0       270        36.6086        24.1532        97.5712              0        67.0899        24.1396     0.00308778
         0       280        34.4794        22.7118        91.1938              0        62.8366        22.7014      0.0026082
         0       290        32.6325        21.4599        85.6599              0        59.1462        21.4523     0.00223027
         0       300        31.0202        20.3657        80.8261              0        55.9232        20.3604     0.00192932
         0       310        29.6036        19.4034         76.576              0        53.0898        19.3998     0.00168731
         0       320        28.3516         18.552        72.8156              0        50.5836        18.5498     0.00149095
         0       330        27.2387        17.7949        69.4692              0         48.354        17.7936     0.00133032
         0       340        26.2446        17.1183        66.4753              0          46.36        17.1176     0.00119797
         0       350        25.3525        16.5111        63.7832              0        44.5678        16.5108      0.0010882
      0.01         0              0              0              0              0              0              0              0
      0.01        10        5.29064        3.94598        2.99163              0        4.14114        4.00354        1.02117
      0.01        20        5.38138        3.86861        3.25143              0        4.31641        3.92808       0.946383
      0.01        30        5.53713        3.84831        3.71484              0        4.62599        3.90441       0.983691
      0.01        40        5.78953        3.89574         4.4757              0        5.13261        3.95122        1.06581
      0.01        50        6.19201        4.04142        5.69345              0        5.94273        4.11194        1.18087
      0.01        60        6.81973         4.3306        7.59265              0        7.20619        4.44069        1.32895
      0.01        70        7.77988        4.82871         10.494              0        9.13695        5.00794        1.51502
      0.01        80        9.22776        5.62181        14.8628              0        12.0453        5.90904        1.76695
      0.01        90        11.3843        6.85291        21.3611              0        16.3727        7.28818        2.08542
      0.01       100        14.5451        8.70986        30.8748              0          22.71        9.33563        2.48011
      0.01       110        19.0529        11.4147        44.4317              0        31.7423        12.2725        2.96023
      0.01       120        25.1782        15.1549        62.8427              0        44.0105        16.2735        3.52105
      0.01       130        32.8602        19.9225        85.9248              0        59.3925        21.2991        4.12533
      0.01       140        41.4099        25.3195        111.611              0        76.5103        26.9033        4.68205
      0.01       150        49.5102        30.5366        135.949              0        92.7295        32.2324        5.04897
      0.01       160        55.7275         34.657        154.637              0        105.182        36.3525        5.09434
      0.01       170        59.1867        37.0856        165.051              0        112.119        38.6839        4.79259
      0.01       180        59.8589        37.7539        167.102              0        113.481        39.1928        4.24821
      0.01       190        58.3524        37.0099        162.616              0        110.484        38.2622        3.61482
      0.01       200        55.5013        35.3657        154.095              0        104.798        36.4311        3.00852
      0.01       210        52.0449         33.289        143.755              0        97.9001        34.1836        2.48441
      0.01       220         48.493        31.1108        133.127              0          90.81        31.8577        2.05446
      0.01       230        45.1322        29.0226         123.07              0        84.1011        29.6465        1.71018
      0.01       240        42.0897        27.1138        113.965              0        78.0273        27.6374        1.43673
      0.01       250        39.3979        25.4119        105.909              0        72.6536        25.8548        1.21937
      0.01       260        37.0415        23.9122        98.8566              0         67.949        24.2906         1.0456
      0.01       270         34.985        22.5958        92.7005              0        63.8427        22.9227       0.905546
      0.01       280        33.1877        21.4393        87.3187              0        60.2532         21.725       0.791624
      0.01       290        31.6106        20.4198        82.5941              0        57.1023        20.6723        0.69807
      0.01       300        30.2191        19.5164        78.4227              0        54.3209        19.7421       0.620521
      0.01       310        28.9837        18.7114        74.7162              0          51.85         18.915       0.555661
      0.01       320        27.8801        17.9898        71.4011              0        49.6406        18.1751       0.500956
      0.01       330        26.8881        17.3394        68.4172              0        47.6526        17.5092       0.454454
      0.01       340        25.9913        16.7502        65.7152              0        45.8532        16.9066       0.414636
      0.01       350        25.1764        16.2137         63.255              0        44.2157        16.3586       0.380314
      0.02         0              0              0              0              0              0              0              0
      0.02        10         5.2887        3.82968        2.98579              0        4.13724        3.91851        1.91196
      0.02        20        5.36949        3.69647        3.21575              0        4.29262        3.78828        1.70352
      0.02        30        5.50843         3.6244        3.62873              0        4.56858         3.7077        1.72782
      0.02        40        5.74397        3.62348        4.33903              0         5.0415        3.70661        1.84345
      0.02        50        6.12308        3.71698        5.48667              0        5.80488        3.81885        2.02328
      0.02        60        6.71338        3.94266         7.2736              0        6.99349        4.09081        2.26481
      0.02        70         7.6307        4.36716        10.0465              0         8.8386        4.60457        2.57538
      0.02        80        9.03541        5.06186        14.2858              0        11.6606        5.45266        3.02152
      0.02        90        11.1524        6.17062        20.6653              0        15.9088        6.78198         3.5961
      0.02       100        14.2736        7.87141        30.0603              0         22.167        8.77666        4.31436
      0.02       110        18.7097        10.3604        43.4021              0        31.0559        11.6323        5.19291
      0.02       120        24.6358        13.7706        61.2156              0        42.9257        15.4597        6.22231
      0.02       130        31.8316        18.0172        82.8391              0        57.3354        20.1196        7.33343
      0.02       140        39.5027        22.6724        105.889              0         72.696        25.1083        8.36137
      0.02       150        46.4672        27.0465         126.82              0        86.6434        29.6731        9.05403
      0.02       160        51.6629         30.475        142.443              0        97.0531        33.1292         9.1825
      0.02       170        54.5653        32.5829        151.186              0        102.876        35.1249        8.70195
      0.02       180        55.2499        33.3531        153.275              0        104.263        35.6886        7.78746
      0.02       190        54.1893        33.0258        150.127              0        102.158         35.107        6.69901
      0.02       200        51.9909         31.947        143.564              0        97.7772        33.7634        5.63797
      0.02       210        49.2066         30.448         135.24              0        92.2234        32.0127        4.70538
      0.02       220        46.2441        28.7841        126.381              0        86.3124        30.1232        3.92851
      0.02       230        43.3586        27.1213        117.749              0        80.5539        28.2656        3.29765
      0.02       240        40.6834        25.5521        109.746              0        75.2148        26.5321        2.79016
      0.02       250        38.2712        24.1179        102.529              0           70.4         24.961        2.38205
      0.02       260        36.1276        22.8294         96.115              0        66.1213        23.5595        2.05233
      0.02       270        34.2352        21.6813        90.4512              0        62.3432         22.318          1.784
      0.02       280        32.5667        20.6609        85.4557              0        59.0112        21.2205        1.56376
      0.02       290        31.0927         19.753        81.0404              0        56.0666        20.2486        1.38137
      0.02       300        29.7856        18.9426        77.1222              0        53.4539        19.3848        1.22898
      0.02       310        28.6206        18.2164         73.627              0        51.1238        18.6136        1.10056
      0.02       320        27.5768        17.5622        70.4912              0         49.034        17.9213       0.991439
      0.02       330        26.6361        16.9701        67.6612              0        47.1486        17.2965       0.898008
      0.02       340        25.7838        16.4316        65.0926              0        45.4382        16.7296       0.817432
      0.02       350        25.0076        15.9395        62.7485              0         43.878        16.2129       0.747476
      0.03         0              0              0              0              0              0              0              0
      0.03        10        5.28783        3.73571        2.98318              0         4.1355        3.84794        2.77488
      0.03        20        5.36318        3.56179        3.19682              0           4.28         3.6777        2.41913
      0.03        30        5.48995        3.45281         3.5733              0        4.53162        3.55438        2.41806
      0.03        40        5.70769        3.41537         4.2302              0        4.96895        3.51037        2.55469
      0.03        50        6.06964        3.47416        5.32633              0        5.69799        3.58902        2.78567
      0.03        60        6.64655        3.66588        7.07309              0        6.85982        3.83814        3.10509
      0.03        70        7.53705         4.0437        9.76555              0         8.6513          4.318        3.52202
      0.03        80        8.90482        4.66483         13.894              0        11.3994        5.12003        4.14851
      0.03        90        10.9814        5.67613        20.1521              0        15.5667        6.39925         4.9651
      0.03       100        14.0516        7.24459        29.3942              0        21.7229        8.33273        5.99004
      0.03       110        18.3901        9.54004        42.4434              0        30.4168        11.0897        7.24523
      0.03       120        24.0859        12.6491        59.5657              0        41.8258        14.7255        8.71393
      0.03       130        30.8056        16.4378        79.7612              0        55.2834        19.0335        10.2941
      0.03       140        37.7277        20.4879        100.564              0        69.1459        23.5022        11.7521
      0.03       150        43.8235        24.2245        118.889              0        81.3561         27.486        12.7417
      0.03       160        48.2942        27.1539        132.337              0        90.3157        30.4727         12.957
      0.03       170        50.8154        29.0251        139.937              0         95.376        32.2385        12.3412
      0.03       180        51.5048        29.8409         142.04              0        96.7724        32.8356        11.1255
      0.03       190        50.7466        29.7763        139.799              0        95.2726        32.4896        9.65372
      0.03       200        49.0099        29.0789         134.62              0        91.8151        31.4892        8.19747
      0.03       210        46.7253        27.9934        127.796              0        87.2608        30.1069        6.89933
      0.03       220        44.2244        26.7182        120.321              0        82.2729        28.5582        5.80368
      0.03       230        41.7292        25.3935        112.861              0        77.2951        26.9905        4.90327
      0.03       240        39.3682        24.1057          105.8              0        72.5843        25.4924        4.17109
      0.03       250        37.2029         22.901        99.3241              0        68.2635        24.1083        3.57655
      0.03       260        35.2521        21.7986        93.4883              0        64.3702        22.8541        3.09199
      0.03       270        33.5106        20.8019        88.2774              0         60.894        21.7294        2.69449
      0.03       280        31.9618        19.9057        83.6409              0        57.8013        20.7252        2.36586
      0.03       290        30.5841        19.1009        79.5146              0        55.0493        19.8293        2.09186
      0.03       300        29.3559        18.3774         75.833              0        52.5944        19.0283        1.86149
      0.03       310        28.2567        17.7251        72.5352              0        50.3959        18.3097        1.66618
      0.03       320        27.2686        17.1348        69.5667              0        48.4177        17.6624        1.49929
      0.03       330        26.3759        16.5983        66.8808              0        46.6283        17.0766        1.35561
      0.03       340        25.5654        16.1087        64.4375              0        45.0014        16.5438        1.23103
      0.03       350        24.8259        15.6601        62.2034              0        43.5147        16.0572        1.12231
      0.04         0              0              0              0              0              0              0              0
      0.04        10        5.28733        3.65354        2.98168              0         4.1345        3.78444        3.62244
      0.04        20         5.3592        3.44706        3.18491              0        4.27206        3.58157        3.11166
      0.04        30        5.47734        3.31019        3.53547              0        4.50641        3.42544        3.07811
      0.04        40        5.68023        3.24531        4.14782              0        4.91403        3.34732        3.22842
      0.04        50        6.02234        3.27569        5.18442              0        5.60338        3.39321        3.50256
      0.04        60        6.58086        3.43907        6.87602              0        6.72844        3.61768        3.89059
      0.04        70        7.46277        3.78951        9.54271              0        8.50274        4.08578        4.40227
      0.04        80        8.81034        4.35826        13.6105              0        11.2104        4.85922        5.20049
